# Wavelength   laser   raw filt
# nm   uJ  V   V
# Filtered data in range (1.0:10.0) MHz
# First col is wavelength in [nm]
# Second col is laser energy in [uJ]
# Third col is normalized (to laser energy) raw PA amp in [V]
# Forth col is normalized (to laser energy) filt PA amp in [V]
9.400e+02 5.019e+02 4.386e-05 3.317e-05
9.300e+02 4.052e+02 2.829e-05 1.611e-05
9.200e+02 5.216e+02 4.103e-05 3.441e-05
9.100e+02 5.818e+02 5.785e-05 5.108e-05
9.000e+02 4.822e+02 5.503e-05 5.012e-05
8.900e+02 4.800e+02 6.876e-05 6.454e-05
8.800e+02 5.907e+02 7.703e-05 7.292e-05
8.700e+02 5.769e+02 7.932e-05 7.303e-05
8.600e+02 6.032e+02 9.195e-05 8.460e-05
8.500e+02 5.110e+02 9.990e-05 8.310e-05
8.400e+02 4.830e+02 1.180e-04 1.119e-04
8.300e+02 5.010e+02 1.089e-04 1.105e-04
8.200e+02 5.078e+02 1.299e-04 1.180e-04
8.100e+02 5.494e+02 1.332e-04 1.249e-04
8.000e+02 5.435e+02 2.084e-04 2.011e-04
7.900e+02 4.473e+02 1.597e-04 1.513e-04
7.800e+02 5.982e+02 1.680e-04 1.584e-04
7.700e+02 6.138e+02 1.623e-04 1.498e-04
7.600e+02 5.000e+02 1.506e-04 1.443e-04
7.500e+02 4.487e+02 1.452e-04 1.363e-04
7.400e+02 4.643e+02 1.004e-04 9.236e-05
7.300e+02 4.630e+02 1.249e-04 1.153e-04
7.200e+02 3.243e+02 1.264e-04 1.195e-04
7.100e+02 5.726e+02 1.235e-04 1.209e-04
7.000e+02 7.785e+02 1.292e-04 1.329e-04
6.900e+02 3.842e+02 1.225e-04 1.064e-04
